temperatures(°C)
23.00
23.00
23.00
23.00
23.00
23.00
23.00
23.9624
24.19765
24.83968333
24.6922
24.06278333
21.86433333
21.63261667
21.81791667
21.97555
21.40146667
20.815
20.80195
20.56215
20.82635
21.28636667
21.11598333
21.01585
20.92883333
21.12983333
20.88258333
20.54581667
20.29606667
20.45843333
20.66735
21.13588333
21.85061667
23.08765
21.9012
21.75138333
21.61136667
21.76103333
22.44671667
22.30025
22.37055
21.91115
21.7587
21.21093333
21.2806
20.60533333
20.83596667
20.33968333
20.1588
20.11695
19.99193333
20.30326667
20.23953333
20.6746
21.65906667
23.94741667
23.83413333
24.36426667
25.12536667
25.68086667
26.04465
26.1797
25.8696
24.85325
23.5916
22.8874
22.60628333
22.31466667
22.03346667
21.82868333
21.54103333
21.38233333
21.09198333
20.56701667
19.99211667
19.39106667
19.86453333
21.23533333
23.64166667
25.43931667
26.59773333
26.95031667
27.72516667
27.28443333
27.42125
27.64105
27.3894
26.55891667
24.74593333
23.66618333
22.96088333
22.40466667
22.02921667
22.62558333
22.76656667
22.73571667
22.61195
22.31538333
22.26853333
22.13595
22.25838333
23.06821667
24.6933
26.26575
28.00961667
29.19396667
27.72765
27.77271667
27.49305
27.36643333
27.38615
26.13221667
25.53448333
24.8346
24.37005
24.143
23.83761667
23.93206667
23.79263333
23.84028333
23.77181667
23.9884
23.8827
23.91158333
24.01703333
24.53633333
25.39118333
27.08058333
28.92036667
29.85903333
29.75948333
27.8696
26.82151667
25.46301667
25.25426667
24.89991667
23.9443
23.87246667
24.47741667
25.1186
24.58263333
23.4051
23.08788333
23.26895
23.43116667
23.31771667
23.36981667
23.4438
23.61843333
24.38576667
26.25783333
27.40415
26.96418333
26.93713333
27.24461667
27.58345
27.16796667
27.00561667
26.11058333
25.4365
25.07753333
24.64698333
24.33975
23.9683
23.91826667
23.90601667
23.9668
23.663
23.5483
23.2907
23.23318333
23.39575
23.9219
24.31546667
25.21385
26.4427